
/begin_header
/missing=-999
/delimiter=space
!
! (4) Thuillier, G., M. Hers%Gï¿½%@ P. C. Simon, D. Labs, H. Mandel, D.
! Gillotay, and T. Foujols, The solar spectral irradiance from 200 to 2400
! nm as measured by the SOLSPEC spectrometer from the ATLAS 1-2-3 and
! EURECA missions, Solar Physics, to be submitted, 2002.
!
/fields=wavelength,irradiance
/units=nm,mW/cm^2/um
/end_header
199.00 0.731709
200.00 0.772681
201.00 0.816924
202.00 0.872445
203.00 0.929527
204.00 1.03333
205.00 1.10904
206.00 1.13149
207.00 1.26051
208.00 1.43973
209.00 1.86692
210.00 2.58897
211.00 3.19456
212.00 3.55781
213.00 3.35904
214.00 3.91393
215.00 4.11609
216.00 3.69783
217.00 3.50096
218.00 4.37890
219.00 4.80800
220.00 5.23157
221.00 4.56628
222.00 4.62152
223.00 5.88240
224.00 6.43274
225.00 5.83440
226.00 4.83926
227.00 3.94721
228.00 4.73042
229.00 5.17156
230.00 4.97728
231.00 5.24822
232.00 5.27475
233.00 4.91101
234.00 4.10038
235.00 4.38803
236.00 5.06557
237.00 4.84638
238.00 4.53571
239.00 4.43764
240.00 4.19985
241.00 4.25006
242.00 6.02247
243.00 6.62706
244.00 6.50244
245.00 5.71961
246.00 4.86043
247.00 5.08103
248.00 5.06362
249.00 4.59976
250.00 5.87634
251.00 5.33521
252.00 4.21964
253.00 4.48357
254.00 5.40188
255.00 6.64953
256.00 8.74649
257.00 11.4434
258.00 12.6466
259.00 11.8949
260.00 9.36177
261.00 8.43184
262.00 9.83148
263.00 11.4006
264.00 21.4247
265.00 24.3985
266.00 25.7596
267.00 24.9977
268.00 25.2866
269.00 24.4469
270.00 26.1032
271.00 26.2122
272.00 20.4863
273.00 21.7633
274.00 16.4806
275.00 14.8179
276.00 21.6756
277.00 25.2612
278.00 20.4282
279.00 13.0588
280.00 8.72985
281.00 14.3838
282.00 25.3638
283.00 30.7148
284.00 29.3812
285.00 18.1491
286.00 24.0295
287.00 35.0929
288.00 31.6235
289.00 38.5294
290.00 53.7536
291.00 59.8305
292.00 55.5290
293.00 53.5573
294.00 52.1409
295.00 52.0752
296.00 55.5761
297.00 47.7610
298.00 51.1526
299.00 47.5888
300.00 44.3424
301.00 44.9875
302.00 44.2709
303.00 57.4371
304.00 61.6824
305.00 62.1852
306.00 57.1556
307.00 60.4472
308.00 64.0030
309.00 59.1674
310.00 53.6741
311.00 74.5675
312.00 71.4442
313.00 70.7281
314.00 71.5524
315.00 67.9350
316.00 60.2478
317.00 73.4236
318.00 72.4218
319.00 70.2762
320.00 77.8996
321.00 76.7473
322.00 71.8573
323.00 66.5386
324.00 73.7163
325.00 83.0767
326.00 97.1702
327.00 99.6204
328.00 96.5383
329.00 105.114
330.00 112.433
331.00 101.345
332.00 101.007
333.00 99.2424
334.00 96.7647
335.00 102.371
336.00 93.3553
337.00 86.3107
338.00 94.6065
339.00 99.9333
340.00 105.963
341.00 101.402
342.00 100.163
343.00 106.801
344.00 91.3965
345.00 94.1181
346.00 97.5903
347.00 97.7781
348.00 97.4893
349.00 99.2312
350.00 102.185
351.00 106.953
352.00 102.422
353.00 103.818
354.00 115.133
355.00 116.223
356.00 106.961
357.00 94.4805
358.00 85.1915
359.00 94.5382
360.00 104.236
361.00 102.337
362.00 102.079
363.00 108.221
364.00 110.308
365.00 114.970
366.00 126.764
367.00 129.157
368.00 122.720
369.00 124.635
370.00 127.668
371.00 123.909
372.00 117.726
373.00 106.979
374.00 98.9967
375.00 102.656
376.00 111.130
377.00 122.488
378.00 132.148
379.00 126.804
380.00 117.138
381.00 119.118
382.00 98.6414
383.00 77.7508
384.00 83.7168
385.00 103.676
386.00 103.788
387.00 106.132
388.00 103.873
389.00 112.017
390.00 123.066
391.00 130.574
392.00 116.761
393.00 86.6983
394.00 85.5825
395.00 114.660
396.00 112.386
397.00 92.3792
398.00 127.790
399.00 164.211
400.00 173.917
401.00 179.950
402.00 187.879
403.00 184.100
404.00 179.551
405.00 174.751
406.00 168.223
407.00 167.684
408.00 169.526
409.00 171.368
410.00 164.855
411.00 161.305
412.00 167.280
413.00 173.255
414.00 176.883
415.00 176.260
416.00 176.930
417.00 177.655
418.00 171.739
419.00 174.742
420.00 171.671
421.00 182.126
422.00 176.853
423.00 169.382
424.00 173.852
425.00 173.100
426.00 172.928
427.00 167.374
428.00 165.210
429.00 156.564
430.00 136.055
431.00 138.173
432.00 160.949
433.00 168.141
434.00 163.902
435.00 166.080
436.00 179.328
437.00 182.723
438.00 172.220
439.00 169.469
440.00 182.485
441.00 184.883
442.00 195.345
443.00 195.407
444.00 195.816
445.00 194.583
446.00 187.538
447.00 196.641
448.00 201.908
449.00 202.696
450.00 209.129
451.00 213.750
452.00 208.194
453.00 200.261
454.00 201.706
455.00 206.789
456.00 209.451
457.00 212.569
458.00 209.579
459.00 204.821
460.00 205.487
461.00 209.051
462.00 211.289
463.00 211.654
464.00 206.570
465.00 202.021
466.00 205.313
467.00 198.159
468.00 202.776
469.00 203.943
470.00 198.571
471.00 199.143
472.00 208.184
473.00 205.826
474.00 208.251
475.00 210.024
476.00 206.914
477.00 208.946
478.00 210.904
479.00 210.443
480.00 209.462
481.00 209.389
482.00 208.899
483.00 206.238
484.00 203.296
485.00 193.735
486.00 177.277
487.00 177.282
488.00 191.606
489.00 195.220
490.00 202.604
491.00 200.454
492.00 192.194
493.00 196.057
494.00 197.362
495.00 203.388
496.00 198.197
497.00 200.728
498.00 194.624
499.00 193.659
500.00 193.393
501.00 186.367
502.00 186.558
503.00 193.841
504.00 190.450
505.00 195.779
506.00 201.398
507.00 200.012
508.00 196.782
509.00 193.552
510.00 189.867
511.00 191.691
512.00 191.949
513.00 188.051
514.00 184.111
515.00 184.984
516.00 179.127
517.00 167.261
518.00 165.139
519.00 173.889
520.00 181.298
521.00 184.294
522.00 184.100
523.00 183.059
524.00 187.462
525.00 189.627
526.00 180.924
527.00 171.697
528.00 180.956
529.00 188.769
530.00 189.209
531.00 191.418
532.00 190.078
533.00 187.219
534.00 185.345
535.00 188.053
536.00 191.721
537.00 184.562
538.00 188.006
539.00 186.494
540.00 180.546
541.00 179.400
542.00 185.810
543.00 184.689
544.00 187.812
545.00 187.848
546.00 188.208
547.00 187.408
548.00 183.822
549.00 188.442
550.00 187.938
551.00 186.138
552.00 188.868
553.00 185.069
554.00 187.579
555.00 188.264
556.00 185.222
557.00 180.262
558.00 180.768
559.00 174.461
560.00 176.756
561.00 182.173
562.00 178.659
563.00 178.906
564.00 179.604
565.00 179.363
566.00 175.801
567.00 180.688
568.00 179.673
569.00 178.540
570.00 178.384
571.00 173.816
572.00 181.395
573.00 183.936
574.00 183.709
575.00 180.143
576.00 179.083
577.00 181.212
578.00 177.917
579.00 177.746
580.00 179.824
581.00 179.975
582.00 181.984
583.00 182.541
584.00 182.216
585.00 179.171
586.00 175.894
587.00 179.279
588.00 178.278
589.00 164.023
590.00 169.347
591.00 175.249
592.00 177.171
593.00 175.842
594.00 177.251
595.00 175.689
596.00 176.245
597.00 177.495
598.00 175.019
599.00 174.773
600.00 174.280
601.00 172.111
602.00 170.028
603.00 173.705
604.00 175.217
605.00 174.741
606.00 172.950
607.00 173.287
608.00 170.942
609.00 169.899
610.00 168.683
611.00 169.764
612.00 168.843
613.00 167.848
614.00 164.473
615.00 166.934
616.00 161.928
617.00 160.792
618.00 165.868
619.00 165.914
620.00 167.474
621.00 168.236
622.00 165.663
623.00 165.351
624.00 163.732
625.00 162.334
626.00 162.971
627.00 166.844
628.00 167.300
629.00 166.439
630.00 164.319
631.00 163.294
632.00 161.898
633.00 163.672
634.00 162.483
635.00 163.040
636.00 162.561
637.00 163.119
638.00 164.490
639.00 162.657
640.00 160.015
641.00 159.032
642.00 159.040
643.00 159.923
644.00 159.804
645.00 158.942
646.00 158.246
647.00 158.884
648.00 159.436
649.00 155.579
650.00 157.038
651.00 160.078
652.00 158.716
653.00 157.001
654.00 155.420
655.00 151.168
656.00 131.808
657.00 139.501
658.00 151.184
659.00 152.495
660.00 153.988
661.00 154.564
662.00 155.754
663.00 153.098
664.00 152.099
665.00 153.577
666.00 152.759
667.00 151.773
668.00 151.875
669.00 152.861
670.00 151.604
671.00 151.148
672.00 150.275
673.00 149.743
674.00 149.096
675.00 148.716
676.00 148.628
677.00 148.501
678.00 148.193
679.00 147.846
680.00 147.689
681.00 147.489
682.00 147.160
683.00 146.485
684.00 145.373
685.00 144.772
686.00 145.444
687.00 146.115
688.00 146.248
689.00 146.814
690.00 147.488
691.00 146.992
692.00 145.889
693.00 145.861
694.00 146.056
695.00 144.421
696.00 145.248
697.00 144.740
698.00 142.992
699.00 145.593
700.00 144.287
701.00 142.442
702.00 142.244
703.00 142.897
704.00 143.498
705.00 144.091
706.00 142.440
707.00 141.880
708.00 141.185
709.00 139.646
710.00 140.180
711.00 138.711
712.00 137.487
713.00 137.333
714.00 137.861
715.00 136.392
716.00 136.912
717.00 137.274
718.00 136.328
719.00 134.398
720.00 135.352
721.00 135.160
722.00 135.112
723.00 135.129
724.00 135.204
725.00 134.429
726.00 134.212
727.00 134.085
728.00 132.445
729.00 130.450
730.00 132.301
731.00 132.631
732.00 132.742
733.00 131.910
734.00 133.047
735.00 131.527
736.00 130.326
737.00 130.440
738.00 129.316
739.00 126.468
740.00 127.308
741.00 126.021
742.00 126.261
743.00 128.296
744.00 127.912
745.00 128.585
746.00 128.708
747.00 128.816
748.00 128.825
749.00 126.934
750.00 126.683
751.00 125.565
752.00 126.607
753.00 126.095
754.00 127.251
755.00 126.927
756.00 126.715
757.00 127.147
758.00 126.915
759.00 126.093
760.00 125.726
761.00 124.807
762.00 123.962
763.00 125.327
764.00 125.815
765.00 124.958
766.00 119.711
767.00 122.773
768.00 124.077
769.00 122.792
770.00 122.565
771.00 122.459
772.00 122.004
773.00 121.481
774.00 120.311
775.00 119.141
776.00 117.971
777.00 116.801
778.00 116.182
779.00 116.984
780.00 116.026
781.00 116.367
782.00 117.078
783.00 115.442
784.00 114.729
785.00 115.580
786.00 115.513
787.00 115.447
788.00 115.277
789.00 115.357
790.00 115.558
791.00 114.363
792.00 113.323
793.00 111.380
794.00 110.291
795.00 112.289
796.00 113.648
797.00 113.378
798.00 113.232
799.00 112.713
800.00 111.650
801.00 112.359
802.00 112.160
803.00 111.848
804.00 111.862
805.00 110.216
806.00 111.563
807.00 110.940
808.00 110.579
809.00 109.827
810.00 109.713
811.00 110.761
812.00 111.045
813.00 111.369
814.00 110.799
815.00 110.370
816.00 110.053
817.00 109.577
818.00 108.057
819.00 106.575
820.00 106.002
821.00 106.214
822.00 105.816
823.00 107.297
824.00 107.002
825.00 106.641
826.00 106.872
827.00 107.183
828.00 106.359
829.00 105.997
830.00 105.445
831.00 105.070
832.00 105.142
833.00 102.579
834.00 102.264
835.00 103.581
836.00 104.393
837.00 104.158
838.00 102.285
839.00 102.374
840.00 103.849
841.00 103.612
842.00 101.563
843.00 100.132
844.00 100.853
845.00 102.327
846.00 102.612
847.00 100.362
848.00 100.308
849.00 97.9005
850.00 91.6749
851.00 97.4857
852.00 95.3986
853.00 93.0030
854.00 81.4797
855.00 88.8095
856.00 96.9572
857.00 96.5676
858.00 97.5663
859.00 97.1492
860.00 97.7243
861.00 97.9481
862.00 99.3201
863.00 99.4262
864.00 99.4924
865.00 95.9955
866.00 83.9762
867.00 91.5352
868.00 97.4054
869.00 95.4836
870.00 96.9515
871.00 95.7656
872.00 96.8600
873.00 96.5406
874.00 94.0428
875.00 93.3928
876.00 94.6302
877.00 96.6229
878.00 96.4716
879.00 95.5878
880.00 94.5794
881.00 91.3079
882.00 94.2102
883.00 93.8445
884.00 93.7948
885.00 94.3729
886.00 91.6936
887.00 90.1318
888.00 92.9744
889.00 93.3023
890.00 93.3359
891.00 93.0697
892.00 91.7639
893.00 90.3922
894.00 91.4306
895.00 90.1224
896.00 92.1162
897.00 90.6524
898.00 90.7761
899.00 91.0309
900.00 89.0314
901.00 86.4530
902.00 85.3795
903.00 89.1994
904.00 90.4711
905.00 90.5095
906.00 88.7914
907.00 88.7328
908.00 87.9476
909.00 85.7691
910.00 86.8403
911.00 87.2415
912.00 86.5379
913.00 88.6540
914.00 88.2272
915.00 86.9492
916.00 87.6433
917.00 86.5589
918.00 86.3790
919.00 87.0412
920.00 86.2464
921.00 84.2802
922.00 83.6140
923.00 81.3812
924.00 83.1188
925.00 83.9646
926.00 82.2987
927.00 84.8106
928.00 85.5512
929.00 84.5344
930.00 84.4595
931.00 84.8314
932.00 84.2334
933.00 84.5177
934.00 84.4735
935.00 83.6034
936.00 82.8909
937.00 83.4426
938.00 83.5113
939.00 82.9993
940.00 82.3335
941.00 79.5854
942.00 79.4503
943.00 82.0015
944.00 80.4132
945.00 81.0318
946.00 81.5569
947.00 81.6414
948.00 81.7991
949.00 81.7118
950.00 81.3509
951.00 80.6957
952.00 80.8280
953.00 80.2497
954.00 78.5801
955.00 75.6850
956.00 79.1350
957.00 79.0647
958.00 79.4489
959.00 79.9158
960.00 79.0665
961.00 78.7211
962.00 78.8467
963.00 77.9742
964.00 77.9151
965.00 77.9845
966.00 76.8517
967.00 77.7627
968.00 77.4508
969.00 77.6051
970.00 77.5757
971.00 77.1056
972.00 77.4877
973.00 76.9049
974.00 75.7321
975.00 76.2381
976.00 76.4888
977.00 75.7344
978.00 76.2104
979.00 75.0492
980.00 75.6223
981.00 75.9077
982.00 75.8826
983.00 75.3539
984.00 75.0910
985.00 75.1992
986.00 74.7899
987.00 74.4627
988.00 74.6212
989.00 73.7097
990.00 73.5256
991.00 73.8315
992.00 73.9537
993.00 73.9649
994.00 73.8859
995.00 73.6318
996.00 73.4724
997.00 73.4672
998.00 73.2783
999.00 72.9561
1000.0 72.7470
1001.0 72.9113
1002.0 72.7709
1003.0 72.0013
1004.0 71.0305
1005.0 67.7153
1006.0 69.2845
1007.0 71.3530
1008.0 71.5616
1009.0 71.3967
1010.0 71.4324
1011.0 71.1382
1012.0 70.9909
1013.0 70.8012
1014.0 70.6970
1015.0 69.8908
1016.0 69.8916
1017.0 69.7412
1018.0 69.8683
1019.0 68.6786
1020.0 69.0311
1021.0 69.2822
1022.0 68.5293
1023.0 69.5009
1024.0 69.3419
1025.0 69.2190
1026.0 69.1693
1027.0 68.9250
1028.0 68.9667
1029.0 68.1550
1030.0 68.2906
1031.0 68.1777
1032.0 68.0889
1033.0 66.9683
1034.0 67.0167
1035.0 66.7819
1036.0 67.5324
1037.0 66.7193
1038.0 66.4032
1039.0 66.8568
1040.0 66.3572
1041.0 66.7101
1042.0 66.5655
1043.0 66.0020
1044.0 66.4143
1045.0 65.9118
1046.0 64.8010
1047.0 65.3697
1048.0 65.8299
1049.0 65.7731
1050.0 65.5087
1051.0 65.4808
1052.0 65.2436
1053.0 64.9993
1054.0 64.8463
1055.0 65.1540
1056.0 65.0599
1057.0 64.9328
1058.0 64.0314
1059.0 63.0070
1060.0 63.9756
1061.0 63.1984
1062.0 64.0541
1063.0 63.4061
1064.0 64.0045
1065.0 64.0219
1066.0 62.8675
1067.0 62.9351
1068.0 62.7837
1069.0 60.1655
1070.0 61.6155
1071.0 62.6883
1072.0 62.6958
1073.0 61.3785
1074.0 62.3922
1075.0 61.2572
1076.0 62.0889
1077.0 62.4651
1078.0 62.0919
1079.0 60.8318
1080.0 62.0769
1081.0 60.8477
1082.0 59.9649
1083.0 59.2964
1084.0 60.9736
1085.0 61.3292
1086.0 61.3762
1087.0 58.8539
1088.0 59.8195
1089.0 59.7421
1090.0 60.5681
1091.0 60.6743
1092.0 59.9502
1093.0 58.9111
1094.0 55.5054
1095.0 57.6161
1096.0 58.1860
1097.0 58.1393
1098.0 57.7504
1099.0 58.1110
1100.0 59.1452
1101.0 58.7137
1102.0 57.4415
1103.0 58.4804
1104.0 58.5800
1105.0 58.4435
1106.0 58.3889
1107.0 58.1451
1108.0 58.1291
1109.0 58.0819
1110.0 58.1034
1111.0 57.8059
1112.0 57.3337
1113.0 57.1237
1114.0 57.4925
1115.0 57.3333
1116.0 57.0845
1117.0 57.4844
1118.0 57.2005
1119.0 56.1927
1120.0 56.1497
1121.0 56.3892
1122.0 56.7416
1123.0 56.6645
1124.0 56.4880
1125.0 55.2210
1126.0 54.6840
1127.0 55.8667
1128.0 55.4387
1129.0 55.2369
1130.0 54.7761
1131.0 55.2813
1132.0 55.3603
1133.0 54.6745
1134.0 54.6300
1135.0 55.1252
1136.0 54.9165
1137.0 54.8775
1138.0 53.8358
1139.0 53.9392
1140.0 53.7877
1141.0 53.3882
1142.0 53.9400
1143.0 53.8911
1144.0 53.6404
1145.0 53.7529
1146.0 54.2120
1147.0 54.2755
1148.0 53.9262
1149.0 53.7179
1150.0 53.6216
1151.0 53.5931
1152.0 53.2139
1153.0 53.2693
1154.0 53.5349
1155.0 53.3882
1156.0 53.0023
1157.0 53.1206
1158.0 53.0132
1159.0 52.0985
1160.0 51.7682
1161.0 51.0195
1162.0 51.7668
1163.0 52.3629
1164.0 51.5667
1165.0 51.7909
1166.0 51.3638
1167.0 51.6312
1168.0 51.9141
1169.0 50.8938
1170.0 51.3044
1171.0 51.7963
1172.0 51.7328
1173.0 51.5835
1174.0 51.5437
1175.0 50.3978
1176.0 50.3244
1177.0 51.0078
1178.0 50.2925
1179.0 50.5352
1180.0 51.1361
1181.0 50.7841
1182.0 50.4892
1183.0 48.6456
1184.0 49.7083
1185.0 50.4083
1186.0 50.4679
1187.0 50.3562
1188.0 49.3606
1189.0 48.1579
1190.0 49.5360
1191.0 50.1972
1192.0 50.0484
1193.0 49.8989
1194.0 49.9051
1195.0 49.4015
1196.0 49.2134
1197.0 48.5566
1198.0 47.6680
1199.0 46.9154
1200.0 48.4199
1201.0 49.1836
1202.0 49.1396
1203.0 47.4883
1204.0 47.3136
1205.0 48.5878
1206.0 48.5536
1207.0 48.7104
1208.0 47.0052
1209.0 46.2806
1210.0 47.6482
1211.0 47.1572
1212.0 47.9209
1213.0 48.0016
1214.0 47.9252
1215.0 47.9852
1216.0 47.8954
1217.0 47.8040
1218.0 47.6431
1219.0 47.4123
1220.0 47.4640
1221.0 47.4106
1222.0 47.2100
1223.0 46.9862
1224.0 47.1192
1225.0 46.9931
1226.0 46.9186
1227.0 46.0899
1228.0 46.2906
1229.0 46.7232
1230.0 46.5340
1231.0 46.3877
1232.0 46.1209
1233.0 46.1627
1234.0 46.0364
1235.0 45.8716
1236.0 46.0018
1237.0 45.9965
1238.0 45.9422
1239.0 45.5052
1240.0 45.2637
1241.0 45.6067
1242.0 45.3107
1243.0 44.8302
1244.0 44.9602
1245.0 45.3564
1246.0 45.1090
1247.0 44.9755
1248.0 45.0949
1249.0 45.1431
1250.0 45.0154
1251.0 44.7655
1252.0 44.3744
1253.0 44.4645
1254.0 44.5779
1255.0 44.5042
1256.0 44.3467
1257.0 44.2310
1258.0 44.2761
1259.0 44.2469
1260.0 44.3871
1261.0 44.2283
1262.0 43.9478
1263.0 44.2122
1264.0 43.8652
1265.0 43.7654
1266.0 43.9406
1267.0 43.6132
1268.0 43.2441
1269.0 43.4304
1270.0 43.7614
1271.0 43.7403
1272.0 43.6124
1273.0 43.4736
1274.0 43.2254
1275.0 43.3065
1276.0 43.3790
1277.0 43.3023
1278.0 43.1455
1279.0 42.8471
1280.0 42.4563
1281.0 40.9634
1282.0 37.9545
1283.0 39.6291
1284.0 41.6924
1285.0 42.0717
1286.0 42.2008
1287.0 42.4026
1288.0 42.2678
1289.0 42.2552
1290.0 41.8323
1291.0 41.8779
1292.0 42.1563
1293.0 42.1051
1294.0 41.8341
1295.0 42.0369
1296.0 42.0725
1297.0 41.8639
1298.0 41.5644
1299.0 41.8374
1300.0 41.7722
1301.0 41.5769
1302.0 41.3030
1303.0 41.0606
1304.0 40.9926
1305.0 41.2611
1306.0 41.3022
1307.0 41.1682
1308.0 41.0215
1309.0 41.0341
1310.0 40.8251
1311.0 40.7326
1312.0 40.1343
1313.0 39.5693
1314.0 40.3886
1315.0 39.4768
1316.0 39.6066
1317.0 40.3499
1318.0 40.0308
1319.0 40.3117
1320.0 40.2287
1321.0 39.9687
1322.0 39.9526
1323.0 39.9707
1324.0 39.9960
1325.0 39.9005
1326.0 39.6836
1327.0 39.5250
1328.0 39.4788
1329.0 38.7247
1330.0 39.1153
1331.0 39.3655
1332.0 38.7858
1333.0 39.1962
1334.0 39.4426
1335.0 39.2748
1336.0 39.1519
1337.0 39.1769
1338.0 38.9611
1339.0 38.4973
1340.0 38.4601
1341.0 38.8122
1342.0 38.7283
1343.0 38.7062
1344.0 38.7429
1345.0 38.7068
1346.0 38.4327
1347.0 38.4965
1348.0 38.4985
1349.0 38.3386
1350.0 37.9579
1351.0 38.0259
1352.0 38.2915
1353.0 38.2155
1354.0 38.0482
1355.0 37.6437
1356.0 37.4758
1357.0 37.3319
1358.0 37.6829
1359.0 37.5471
1360.0 37.2763
1361.0 37.6344
1362.0 37.5059
1363.0 37.0567
1364.0 37.2472
1365.0 37.3138
1366.0 37.2505
1367.0 37.0004
1368.0 36.9976
1369.0 36.6665
1370.0 36.6237
1371.0 36.6137
1372.0 36.8900
1373.0 36.9838
1374.0 36.8205
1375.0 36.4529
1376.0 36.1938
1377.0 36.4140
1378.0 36.4856
1379.0 36.6346
1380.0 36.5005
1381.0 36.4617
1382.0 36.1187
1383.0 36.1242
1384.0 36.2953
1385.0 36.1063
1386.0 36.1263
1387.0 36.0160
1388.0 36.0945
1389.0 36.0787
1390.0 35.7192
1391.0 35.9439
1392.0 35.9316
1393.0 35.7731
1394.0 35.6083
1395.0 35.4948
1396.0 35.5903
1397.0 35.6665
1398.0 35.6603
1399.0 35.4719
1400.0 34.8323
1401.0 34.8706
1402.0 35.1744
1403.0 35.0120
1404.0 34.9505
1405.0 34.9889
1406.0 35.0035
1407.0 34.9343
1408.0 34.9251
1409.0 34.9872
1410.0 34.9280
1411.0 34.4053
1412.0 33.9756
1413.0 34.2350
1414.0 34.4178
1415.0 34.5369
1416.0 34.4310
1417.0 34.4971
1418.0 34.5027
1419.0 34.2341
1420.0 34.1509
1421.0 34.0339
1422.0 33.6229
1423.0 33.6533
1424.0 33.6713
1425.0 33.7003
1426.0 33.2668
1427.0 33.3628
1428.0 33.5401
1429.0 33.1545
1430.0 33.1414
1431.0 33.3750
1432.0 33.7487
1433.0 33.7266
1434.0 33.4290
1435.0 33.5673
1436.0 33.5371
1437.0 33.5708
1438.0 33.5272
1439.0 33.4817
1440.0 32.2622
1441.0 32.2842
1442.0 32.5819
1443.0 32.5112
1444.0 32.6239
1445.0 32.7909
1446.0 32.9114
1447.0 32.6776
1448.0 32.8911
1449.0 32.8860
1450.0 32.5885
1451.0 32.1462
1452.0 32.2062
1453.0 32.3834
1454.0 32.0823
1455.0 31.9338
1456.0 31.9599
1457.0 32.1449
1458.0 32.3870
1459.0 32.4714
1460.0 32.2242
1461.0 32.1395
1462.0 31.9119
1463.0 31.7014
1464.0 31.7767
1465.0 31.7885
1466.0 31.6948
1467.0 31.9526
1468.0 31.6676
1469.0 31.8659
1470.0 31.6155
1471.0 31.2710
1472.0 31.3076
1473.0 31.0347
1474.0 30.7397
1475.0 30.8997
1476.0 30.9479
1477.0 30.9337
1478.0 30.8330
1479.0 31.1200
1480.0 31.2481
1481.0 30.9741
1482.0 31.0103
1483.0 30.6747
1484.0 30.8764
1485.0 31.1984
1486.0 30.9015
1487.0 30.2142
1488.0 28.3544
1489.0 29.8208
1490.0 30.8654
1491.0 30.7620
1492.0 30.6163
1493.0 30.7790
1494.0 30.8632
1495.0 30.6155
1496.0 29.9602
1497.0 30.1282
1498.0 30.3534
1499.0 30.2592
1500.0 30.4518
1501.0 30.4191
1502.0 29.5126
1503.0 28.1934
1504.0 28.2731
1505.0 27.6650
